pdf: tabular			
	wavelength / nm	pdf / %	x / eV
	617.247	0.00000	2.0086641654
	599.134	5.42299	2.0693900364
	598.246	5.63991	2.0724617132
	597.359	6.29067	2.0755390479
	596.914	6.29067	2.0770863644
	596.470	6.50759	2.0786325047
	596.025	6.50759	2.0801844387
	595.582	6.72451	2.0817317012
	594.914	6.72451	2.0840691765
	594.470	6.94143	2.085625734
	593.582	7.15835	2.0887458348
	593.138	7.37527	2.0903093885
	592.914	7.37527	2.0910990972
	592.471	7.37527	2.0926626452
	591.803	7.37527	2.0950247466
	591.359	7.59219	2.0965977183
	590.470	7.59219	2.0997543145
	590.026	7.80911	2.101334399
	589.802	7.85272	2.1021324616
	588.915	8.02603	2.1052986086
	588.469	7.80911	2.1068942121
	588.025	8.02603	2.1084850646
	586.914	8.24295	2.1124763255
	586.024	8.24295	2.1156845626
	585.578	8.02603	2.1172959539
	585.357	8.06926	2.1180953334
	584.467	8.24295	2.1213206735
	584.023	8.45987	2.1229333949
	583.579	8.45987	2.1245485703
	582.691	8.89371	2.1277863054
	582.247	9.11063	2.1294088765
	580.915	9.76139	2.1342914714
	580.470	9.76139	2.1359276622
	579.361	10.41210	2.1400162077
	578.916	10.41210	2.1416611911
	578.029	10.84600	2.1449476239
	577.805	10.95520	2.1457791644
	577.141	11.27980	2.1482478807
	576.696	11.27980	2.1499055483
	576.252	11.49670	2.1515620425
	575.585	11.49670	2.1540553178
	574.697	11.93060	2.1573836823
	573.809	12.36440	2.1607223485
	572.700	13.01520	2.1649064608
	572.478	13.08760	2.1657459852
	572.034	13.23210	2.1674269888
	571.589	13.23210	2.1691143988
	570.700	13.44900	2.1724933066
	570.257	13.66590	2.1741809922
	569.589	13.66590	2.1767308183
	568.701	13.88290	2.1801296817
	568.258	14.31670	2.1818292573
	567.814	14.53360	2.1835353304
	567.149	15.18440	2.1860955941
	566.705	15.18440	2.1878083484
	566.262	15.61820	2.189519922
	565.818	15.83510	2.1912380484
	565.375	16.26900	2.1929549946
	564.931	16.48590	2.1946785184
	564.044	17.13670	2.1981298092
	563.155	17.35360	2.2015997906
	562.267	17.57050	2.2050768231
	561.822	17.57050	2.2068233891
	561.378	17.78740	2.2085687898
	561.155	18.07960	2.2094464633
	560.933	18.36920	2.2103208941
	560.715	18.65510	2.2111802432
	559.825	18.65510	2.2146955389
	558.937	19.08890	2.2182140923
	558.049	19.52280	2.2217438434
	557.608	20.17350	2.2235009722
	557.163	20.17350	2.2252768581
	556.720	20.60740	2.2270475824
	556.277	21.04120	2.2288211271
	555.391	21.90890	2.2323767041
	554.949	22.55970	2.2341547243
	554.505	22.77660	2.2359436436
	554.063	23.42730	2.2377273525
	553.619	23.64430	2.239522
	552.956	24.51190	2.2422072101
	552.512	24.72890	2.2440090534
	551.627	25.81340	2.247609218
	551.183	26.03040	2.2494197573
	550.741	26.68110	2.2512250406
	550.298	26.89800	2.2530373181
	550.075	27.22560	2.2539506978
	549.856	27.54880	2.254848415
	549.411	27.54880	2.2566747482
	548.967	27.76570	2.2584999282
	548.523	27.98260	2.260328063
	548.080	28.41650	2.2621550323
	547.636	28.63340	2.2639890915
	547.416	29.06720	2.2648989618
	546.972	29.28420	2.2667374748
	546.528	29.50110	2.2685789751
	546.085	29.93490	2.2704193122
	545.641	30.15180	2.272266802
	544.755	31.01950	2.2759624604
	543.869	31.67030	2.2796701597
	543.204	32.32100	2.2824609725
	542.762	32.97180	2.284319702
	541.877	33.83950	2.2880504803
	541.435	34.49020	2.2899183283
	540.770	35.14100	2.292734305
	540.106	35.79180	2.2955529657
	539.441	36.44250	2.2983828261
	538.779	37.52710	2.3012068586
	538.557	37.85460	2.3021554452
	538.337	38.17790	2.3030962577
	537.893	38.39480	2.3049973324
	537.006	39.04560	2.3088046132
	536.786	39.47940	2.3097508692
	536.564	39.69730	2.3107065142
	536.122	40.13020	2.3126115513
	535.678	40.34710	2.3145283736
	535.236	40.99780	2.3164397202
	534.572	41.86550	2.3193170052
	534.130	42.51630	2.3212362722
	533.246	43.60090	2.3250843515
	532.362	44.90240	2.3289452104
	531.698	45.77010	2.3318536652
	531.256	46.42080	2.3337937456
	530.594	47.50540	2.3367055227
	529.931	48.59000	2.3396289896
	529.049	50.10850	2.3435294842
	528.383	50.54230	2.3464833844
	527.942	51.41000	2.3484434466
	527.057	52.49460	2.3523868008
	526.394	53.36230	2.3553496622
	525.730	54.01300	2.3583244823
	525.288	54.66380	2.3603088784
	524.624	55.53150	2.3632962466
	523.962	56.61610	2.3662821542
	523.298	57.48370	2.3692846716
	522.636	58.56830	2.3722857402
	521.973	59.43600	2.3752989716
	521.310	60.52060	2.3783198674
	520.428	62.25600	2.3823505463
	519.545	63.77440	2.3863995036
	519.103	64.42520	2.3884314483
	518.441	65.50980	2.3914812488
	517.778	66.59440	2.3945434725
	517.117	67.89590	2.3976042754
	516.455	68.98050	2.4006775616
	515.573	70.71580	2.4047844439
	515.130	71.14970	2.4068525034
	514.688	71.80040	2.4089194426
	514.024	72.66810	2.4120312088
	513.582	73.31890	2.4141070561
	512.920	74.40350	2.4172228225
	512.478	75.05420	2.4193076192
	512.037	75.92190	2.4213912864
	511.821	77.44030	2.4224131681
	511.599	77.65820	2.4234643346
	511.157	78.09110	2.4255599162
	510.938	78.95880	2.426599568
	510.498	80.04340	2.4286910626
	510.279	80.69410	2.4297334009
	509.838	81.56180	2.4318350733
	509.394	81.77870	2.4339547189
	509.177	83.08030	2.4349920167
	508.736	83.94790	2.4371028001
	508.518	84.81560	2.438147578
	508.077	85.68330	2.4402638381
	507.637	86.76790	2.4423789639
	507.196	87.63560	2.4445025791
	506.532	88.50330	2.4477070157
	505.871	89.80480	2.4509053298
	505.428	90.23860	2.4530535113
	504.987	91.10630	2.4551957379
	504.545	91.75700	2.4573465798
	503.882	92.62470	2.4605799177
	503.217	93.27550	2.4638315679
	502.554	94.14320	2.4670820053
	502.334	94.57700	2.4681624777
	502.111	94.79490	2.4692586502
	501.891	95.01080	2.4703410304
	501.225	95.44470	2.4736234827
	500.338	95.87850	2.4780087263
	499.452	96.74620	2.4824045756
	499.009	97.18000	2.4846083539
	498.785	97.18000	2.4857241699
	498.564	97.18000	2.4868260245
	498.119	97.18000	2.4890476575
	497.676	97.61390	2.4912632518
	497.453	97.66840	2.4923800441
	497.231	97.72250	2.4934928234
	496.788	97.83080	2.495716342
	496.347	98.69850	2.4979337643
	496.124	98.77090	2.4990565465
	495.680	98.91540	2.5012950494
	495.235	98.91540	2.5035426214
	494.792	99.13230	2.5057841074
	494.568	99.17590	2.5069190285
	493.680	99.34920	2.5114283141
	492.791	99.34920	2.5159589564
	491.902	99.56620	2.520505975
	491.456	99.34920	2.522793353
	491.012	99.56620	2.5250746012
	490.789	99.52990	2.5262219204
	489.677	99.34920	2.5319586791
	489.230	98.91540	2.5342720808
	488.339	98.69850	2.5388959925
	487.891	97.83080	2.541227303
	487.444	97.39700	2.5435576807
	486.775	96.96310	2.5470534232
	486.327	96.31240	2.5493997456
	485.879	95.66160	2.5517503948
	485.654	95.01080	2.5529326024
	485.429	94.36010	2.5541159059
	484.981	93.70930	2.5564752642
	484.756	93.05860	2.5576618548
	484.529	92.19090	2.5588601097
	483.854	90.45550	2.5624298447
	483.406	89.58790	2.5648045951
	482.954	88.06940	2.5672050135
	482.505	87.20170	2.5695939526
	482.279	86.33410	2.5707980859
	482.051	85.03250	2.5720140195
	481.821	83.29720	2.573241785
	481.592	81.77870	2.5744653775
	481.360	79.82650	2.5757061868
	481.128	77.65730	2.5769481928
	480.897	75.70500	2.5781860359
	480.445	73.96960	2.580611579
	480.215	72.23430	2.5818475685
	479.983	70.28200	2.5830955057
	479.756	69.19740	2.5843177159
	479.752	68.32970	2.584339263
	479.526	67.46200	2.5855572588
	479.298	66.16050	2.5867871973
	479.071	65.07590	2.5880129043
	478.621	63.99130	2.590446157
	478.392	62.47290	2.5916861697
	478.164	61.17140	2.5929219475
	477.934	59.65290	2.59416976
	477.698	56.61610	2.5954513732
	477.469	55.09760	2.5966961836
	477.465	54.22990	2.5967179376
	477.010	51.84380	2.5991948389
	476.778	49.67460	2.6004596061
	476.546	47.50540	2.6017256049
	476.314	45.33620	2.6029928369
	476.081	42.95010	2.6042667741
	475.849	40.78090	2.6055364834
	475.397	39.26250	2.6080137866
	475.163	36.65940	2.6092981358
	474.927	33.62260	2.6105947442
	474.463	29.28420	2.6131477694
	474.234	27.76570	2.6144096165
	474.230	26.89800	2.6144316684
	473.776	24.94580	2.6169369704
	473.546	23.21040	2.6182080096
	473.315	21.25810	2.6194858183
	472.862	19.30590	2.6219952758
	472.632	17.57050	2.6232712345
	472.179	15.83510	2.6257879535
	471.950	14.31670	2.6270620407
	471.275	12.58130	2.6308247416
	471.000	11.00000	2.6323607858
	470.151	10.00000	2.6371143103
	469.000	8.00000	2.6435862049
	469.000	7.00000	2.6435862049
	468.000	5.85683	2.6492348934
	468.000	5.00000	2.6492348934
	467.000	3.00000	2.6549077732
	467.000	3.00000	2.6549077732
	466.000	3.00000	2.6606050002
	466.000	3.00000	2.6606050002
	465.000	2.00000	2.6663267314
	463.000	1.00000	2.6778443415
	461.291	0.00000	2.687765272
